File: PC2/IR-Raman/Raman/CDCl3.csv
ENLIGHTEN Version,3.2.36
Measurement ID,20260121-153022-722874-WP-01416
Serial Number,WP-01416
Model,WPX-532-R4-EXR-IC
Detector,S11850-1106
Label,CDCl3
Declared Match,
Declared Score,0
Scan Averaging,1
Boxcar,1
Technique,
Baseline Correction Algo,
ROI Pixel Start,80
ROI Pixel End,2046
CCD C4,2.7495e-13
Slit Width,25
Vignetted,True
Interpolated,False
Wavenumber Correction,0
Raman Intensity Corrected,False
Deconvolved,False
Region,
Laser Power mW,
Battery %,
Device ID,<DeviceID USB USB:0x24aa:0x1000:0:1>
FW Version,10.0.0.10
FPGA Version,035-001
Integration Time,1000
Timestamp,2026-01-21 15:30:22.7229
Note,
Temperature,9.99381
CCD C0,526.091
CCD C1,0.111475
CCD C2,4.83367e-06
CCD C3,-3.90229e-09
CCD Offset,0
CCD Gain,1.9
CCD Offset Odd,0
CCD Gain Odd,1.9
Laser Wavelength,532.1
Laser Enable,False
Laser Power %,100
Laser Temperature,0
Pixel Count,2048

Pixel,Wavelength,Wavenumber,Processed
80,535.04,103.19,1359.00
87,535.82,130.59,1207.67
94,536.61,157.92,1138.00
101,537.40,185.18,1141.33
108,538.18,212.37,1203.67
115,538.97,239.50,2161.67
122,539.76,266.56,2070.00
129,540.54,293.55,1178.00
136,541.33,320.48,1185.67
143,542.12,347.34,2371.33
150,542.91,374.13,1495.33
157,543.70,400.85,1135.00
164,544.49,427.51,1136.00
171,545.28,454.10,1110.33
178,546.06,480.62,1148.33
185,546.85,507.07,1129.67
192,547.65,533.46,1111.33
199,548.44,559.78,1141.67
206,549.23,586.03,1123.33
213,550.02,612.21,1166.33
220,550.81,638.33,3140.67
227,551.60,664.38,1244.67
234,552.39,690.36,1172.33
241,553.18,716.27,1591.67
248,553.98,742.12,1631.33
255,554.77,767.90,1176.00
262,555.56,793.61,1102.33
269,556.35,819.26,1092.00
276,557.15,844.84,1088.00
283,557.94,870.35,1137.00
290,558.73,895.79,1333.33
297,559.53,921.17,1227.00
304,560.32,946.48,1148.67
311,561.11,971.72,1093.00
318,561.91,996.89,1102.33
325,562.70,1022.00,1081.00
332,563.49,1047.04,1077.33
339,564.29,1072.02,1119.00
346,565.08,1096.92,1097.33
353,565.88,1121.76,1091.67
360,566.67,1146.54,1088.33
367,567.47,1171.24,1110.67
374,568.26,1195.88,1090.33
381,569.05,1220.45,1103.33
388,569.85,1244.96,1105.00
395,570.64,1269.40,1084.33
402,571.44,1293.77,1078.33
409,572.23,1318.08,1102.33
416,573.03,1342.32,1084.33
423,573.82,1366.49,1067.00
430,574.62,1390.60,1082.67
437,575.41,1414.64,1079.00
444,576.21,1438.61,1122.00
451,577.00,1462.52,1136.00
458,577.80,1486.36,1113.33
465,578.59,1510.14,1101.67
472,579.39,1533.85,1094.33
479,580.18,1557.49,1096.00
486,580.98,1581.07,1083.67
493,581.77,1604.59,1108.67
500,582.57,1628.03,1130.00
507,583.36,1651.41,1115.33
514,584.16,1674.73,1110.00
521,584.95,1697.98,1097.33
528,585.74,1721.17,1088.00
535,586.54,1744.29,1124.33
542,587.33,1767.34,1086.00
549,588.13,1790.33,1122.67
556,588.92,1813.25,1108.67
563,589.71,1836.11,1103.00
570,590.51,1858.91,1108.67
577,591.30,1881.64,1099.67
584,592.10,1904.30,1083.67
591,592.89,1926.90,1124.67
598,593.68,1949.43,1092.33
605,594.48,1971.91,1119.00
612,595.27,1994.31,1091.00
619,596.06,2016.65,1079.00
626,596.85,2038.93,1084.33
633,597.65,2061.15,1090.33
640,598.44,2083.29,1101.33
647,599.23,2105.38,1085.00
654,600.02,2127.40,1097.33
661,600.81,2149.36,1083.67
668,601.60,2171.25,1117.33
675,602.40,2193.08,1100.00
682,603.19,2214.85,1148.00
689,603.98,2236.56,1673.00
696,604.77,2258.20,1915.67
703,605.56,2279.77,1183.33
710,606.35,2301.29,1119.67
717,607.14,2322.74,1105.33
724,607.93,2344.13,1105.67
731,608.72,2365.45,1099.00
738,609.51,2386.71,1087.00
745,610.29,2407.91,1144.33
752,611.08,2429.05,1181.00
759,611.87,2450.13,1143.67
766,612.66,2471.14,1137.33
773,613.45,2492.09,1107.00
780,614.23,2512.98,1105.67
787,615.02,2533.80,1103.00
794,615.81,2554.57,1110.67
801,616.59,2575.27,1098.00
808,617.38,2595.91,1099.33
815,618.16,2616.49,1095.67
822,618.95,2637.01,1078.00
829,619.73,2657.47,1091.00
836,620.52,2677.86,1103.67
843,621.30,2698.19,1119.33
850,622.08,2718.47,1096.67
857,622.87,2738.68,1081.33
864,623.65,2758.83,1087.33
871,624.43,2778.92,1105.67
878,625.21,2798.95,1107.00
885,626.00,2818.92,1114.00
892,626.78,2838.83,1084.33
899,627.56,2858.68,1091.33
906,628.34,2878.47,1097.67
913,629.12,2898.20,1108.33
920,629.90,2917.87,1091.00
927,630.68,2937.48,1088.00
934,631.46,2957.03,1114.00
941,632.23,2976.52,1088.67
948,633.01,2995.95,1081.67
955,633.79,3015.32,1087.67
962,634.56,3034.63,1118.33
969,635.34,3053.88,1089.33
976,636.12,3073.08,1109.00
983,636.89,3092.21,1082.00
990,637.67,3111.29,1120.00
997,638.44,3130.30,1099.67
1004,639.21,3149.26,1094.67
1011,639.99,3168.16,1118.33
1018,640.76,3187.00,1117.67
1025,641.53,3205.79,1093.00
1032,642.30,3224.51,1091.67
1039,643.08,3243.18,1114.00
1046,643.85,3261.79,1110.33
1053,644.62,3280.35,1106.33
1060,645.39,3298.84,1085.33
1067,646.15,3317.28,1075.33
1074,646.92,3335.66,1157.67
1081,647.69,3353.98,1099.33
1088,648.46,3372.25,1110.33
1095,649.22,3390.45,1078.67
1102,649.99,3408.61,1074.33
1109,650.76,3426.70,1093.00
1116,651.52,3444.74,1074.67
1123,652.28,3462.72,1088.00
1130,653.05,3480.65,1107.00
1137,653.81,3498.52,1107.67
1144,654.57,3516.33,1096.00
1151,655.33,3534.09,1105.00
1158,656.10,3551.79,1083.67
1165,656.86,3569.43,1101.00
1172,657.62,3587.02,1106.67
1179,658.38,3604.55,1088.00
1186,659.13,3622.03,1102.67
1193,659.89,3639.46,1091.33
1200,660.65,3656.82,1168.00
1207,661.41,3674.14,1100.67
1214,662.16,3691.40,1069.67
1221,662.92,3708.60,1099.33
1228,663.67,3725.75,1098.67
1235,664.42,3742.84,1100.67
1242,665.18,3759.88,1067.00
1249,665.93,3776.86,1110.00
1256,666.68,3793.79,1087.00
1263,667.43,3810.67,1103.67
1270,668.18,3827.49,1087.33
1277,668.93,3844.26,1090.00
1284,669.68,3860.98,1089.67
1291,670.43,3877.64,1099.33
1298,671.18,3894.25,1089.33
1305,671.92,3910.80,1089.00
1312,672.67,3927.30,1075.67
1319,673.41,3943.75,1084.00
1326,674.16,3960.14,1074.67
1333,674.90,3976.49,1101.33
1340,675.64,3992.77,1082.67
1347,676.39,4009.01,1071.33
1354,677.13,4025.20,1105.67
1361,677.87,4041.33,1089.33
1368,678.61,4057.41,1095.33
1375,679.35,4073.43,1081.33
1382,680.08,4089.41,1107.33
1389,680.82,4105.33,1091.67
1396,681.56,4121.20,1107.33
1403,682.29,4137.02,1103.67
1410,683.03,4152.79,1093.67
1417,683.76,4168.50,1078.00
1424,684.50,4184.17,1091.67
1431,685.23,4199.78,1097.00
1438,685.96,4215.35,1070.67
1445,686.69,4230.86,1078.33
1452,687.42,4246.32,1087.67
1459,688.15,4261.73,1078.00
1466,688.88,4277.09,1081.67
1473,689.60,4292.39,1095.00
1480,690.33,4307.65,1093.33
1487,691.06,4322.86,1080.33
1494,691.78,4338.02,1091.33
1501,692.50,4353.13,1096.33
1508,693.23,4368.18,1082.00
1515,693.95,4383.19,1099.67
1522,694.67,4398.15,1065.33
1529,695.39,4413.06,1076.67
1536,696.11,4427.92,1071.00
1543,696.83,4442.73,1072.67
1550,697.55,4457.49,1125.33
1557,698.26,4472.20,1093.00
1564,698.98,4486.86,1060.67
1571,699.69,4501.48,1100.00
1578,700.41,4516.04,1077.33
1585,701.12,4530.56,1084.67
1592,701.83,4545.02,1105.00
1599,702.54,4559.44,1066.00
1606,703.25,4573.81,1085.00
1613,703.96,4588.14,1102.00
1620,704.67,4602.41,1089.33
1627,705.38,4616.64,1093.00
1634,706.08,4630.82,1120.00
1641,706.79,4644.95,1108.67
1648,707.49,4659.03,1114.00
1655,708.20,4673.07,1102.00
1662,708.90,4687.05,1127.67
1669,709.60,4701.00,1100.00
1676,710.30,4714.89,1096.67
1683,711.00,4728.74,1118.33
1690,711.70,4742.54,1116.33
1697,712.39,4756.29,1086.67
1704,713.09,4770.00,1074.33
1711,713.79,4783.66,1103.67
1718,714.48,4797.27,1101.67
1725,715.17,4810.84,1091.67
1732,715.87,4824.36,1102.33
1739,716.56,4837.83,1079.00
1746,717.25,4851.26,1115.67
1753,717.94,4864.64,1092.67
1760,718.62,4877.98,1087.33
1767,719.31,4891.27,1077.00
1774,720.00,4904.52,1114.00
1781,720.68,4917.72,1143.67
1788,721.37,4930.87,1076.33
1795,722.05,4943.98,1090.33
1802,722.73,4957.04,1096.33
1809,723.41,4970.06,1070.00
1816,724.09,4983.04,1089.33
1823,724.77,4995.97,1114.00
1830,725.45,5008.85,1077.33
1837,726.12,5021.69,1122.33
1844,726.80,5034.49,1086.67
1851,727.47,5047.24,1084.00
1858,728.15,5059.95,1084.67
1865,728.82,5072.61,1092.00
1872,729.49,5085.23,1081.00
1879,730.16,5097.80,1099.33
1886,730.83,5110.33,1112.33
1893,731.49,5122.82,1112.67
1900,732.16,5135.26,1091.00
1907,732.83,5147.66,1108.33
1914,733.49,5160.02,1104.67
1921,734.15,5172.33,1101.33
1928,734.82,5184.60,1153.67
1935,735.48,5196.83,1073.00
1942,736.14,5209.01,1106.33
1949,736.79,5221.15,1103.00
1956,737.45,5233.25,1119.67
1963,738.11,5245.31,1125.67
1970,738.76,5257.32,1092.33
1977,739.42,5269.29,1114.00
1984,740.07,5281.22,1105.00
1991,740.72,5293.10,1110.67
1998,741.37,5304.95,1110.67
2005,742.02,5316.75,1122.67
2012,742.67,5328.51,1104.33
2019,743.32,5340.23,1097.67
2026,743.96,5351.90,1104.33
2033,744.61,5363.54,1106.33
2040,745.25,5375.13,1069.67
2046,745.80,5385.03,1053.00