File: PC2/IR-Raman/Raman/CHCl3.csv
ENLIGHTEN Version,3.2.36
Measurement ID,20260121-152926-257183-WP-01416
Serial Number,WP-01416
Model,WPX-532-R4-EXR-IC
Detector,S11850-1106
Label,CHCl3
Declared Match,
Declared Score,0
Scan Averaging,1
Boxcar,1
Technique,
Baseline Correction Algo,
ROI Pixel Start,80
ROI Pixel End,2046
CCD C4,2.7495e-13
Slit Width,25
Vignetted,True
Interpolated,False
Wavenumber Correction,0
Raman Intensity Corrected,False
Deconvolved,False
Region,
Laser Power mW,
Battery %,
Device ID,<DeviceID USB USB:0x24aa:0x1000:0:1>
FW Version,10.0.0.10
FPGA Version,035-001
Integration Time,1000
Timestamp,2026-01-21 15:29:26.2572
Note,
Temperature,10.0109
CCD C0,526.091
CCD C1,0.111475
CCD C2,4.83367e-06
CCD C3,-3.90229e-09
CCD Offset,0
CCD Gain,1.9
CCD Offset Odd,0
CCD Gain Odd,1.9
Laser Wavelength,532.1
Laser Enable,False
Laser Power %,100
Laser Temperature,0
Pixel Count,2048

Pixel,Wavelength,Wavenumber,Processed
80,535.04,103.19,1372.00
87,535.82,130.59,1200.00
94,536.61,157.92,1142.00
101,537.40,185.18,1139.00
108,538.18,212.37,1202.67
115,538.97,239.50,2111.67
122,539.76,266.56,2224.00
129,540.54,293.55,1191.67
136,541.33,320.48,1191.00
143,542.12,347.34,2245.67
150,542.91,374.13,1772.33
157,543.70,400.85,1149.33
164,544.49,427.51,1149.33
171,545.28,454.10,1132.67
178,546.06,480.62,1178.00
185,546.85,507.07,1141.67
192,547.65,533.46,1108.67
199,548.44,559.78,1145.00
206,549.23,586.03,1131.33
213,550.02,612.21,1136.00
220,550.81,638.33,1225.33
227,551.60,664.38,3645.00
234,552.39,690.36,1152.00
241,553.18,716.27,1251.33
248,553.98,742.12,1657.33
255,554.77,767.90,1627.67
262,555.56,793.61,1176.67
269,556.35,819.26,1109.67
276,557.15,844.84,1098.00
283,557.94,870.35,1092.67
290,558.73,895.79,1089.67
297,559.53,921.17,1104.33
304,560.32,946.48,1123.33
311,561.11,971.72,1076.67
318,561.91,996.89,1101.00
325,562.70,1022.00,1081.67
332,563.49,1047.04,1082.33
339,564.29,1072.02,1133.00
346,565.08,1096.92,1098.33
353,565.88,1121.76,1110.33
360,566.67,1146.54,1102.33
367,567.47,1171.24,1128.33
374,568.26,1195.88,1228.33
381,569.05,1220.45,1341.00
388,569.85,1244.96,1145.33
395,570.64,1269.40,1107.00
402,571.44,1293.77,1084.33
409,572.23,1318.08,1106.33
416,573.03,1342.32,1078.67
423,573.82,1366.49,1065.67
430,574.62,1390.60,1088.00
437,575.41,1414.64,1088.00
444,576.21,1438.61,1095.33
451,577.00,1462.52,1131.00
458,577.80,1486.36,1165.67
465,578.59,1510.14,1160.67
472,579.39,1533.85,1118.33
479,580.18,1557.49,1116.00
486,580.98,1581.07,1095.00
493,581.77,1604.59,1110.67
500,582.57,1628.03,1099.33
507,583.36,1651.41,1099.33
514,584.16,1674.73,1120.67
521,584.95,1697.98,1089.33
528,585.74,1721.17,1091.67
535,586.54,1744.29,1123.33
542,587.33,1767.34,1083.00
549,588.13,1790.33,1095.67
556,588.92,1813.25,1097.33
563,589.71,1836.11,1100.67
570,590.51,1858.91,1105.33
577,591.30,1881.64,1103.67
584,592.10,1904.30,1091.67
591,592.89,1926.90,1118.33
598,593.68,1949.43,1112.00
605,594.48,1971.91,1126.67
612,595.27,1994.31,1095.33
619,596.06,2016.65,1070.33
626,596.85,2038.93,1079.33
633,597.65,2061.15,1090.33
640,598.44,2083.29,1101.33
647,599.23,2105.38,1081.33
654,600.02,2127.40,1103.00
661,600.81,2149.36,1082.67
668,601.60,2171.25,1113.67
675,602.40,2193.08,1088.00
682,603.19,2214.85,1091.67
689,603.98,2236.56,1096.33
696,604.77,2258.20,1093.00
703,605.56,2279.77,1092.33
710,606.35,2301.29,1094.33
717,607.14,2322.74,1095.00
724,607.93,2344.13,1101.33
731,608.72,2365.45,1115.67
738,609.51,2386.71,1108.33
745,610.29,2407.91,1179.00
752,611.08,2429.05,1255.33
759,611.87,2450.13,1171.00
766,612.66,2471.14,1156.00
773,613.45,2492.09,1126.00
780,614.23,2512.98,1123.33
787,615.02,2533.80,1113.67
794,615.81,2554.57,1112.67
801,616.59,2575.27,1112.00
808,617.38,2595.91,1098.00
815,618.16,2616.49,1092.33
822,618.95,2637.01,1074.67
829,619.73,2657.47,1100.33
836,620.52,2677.86,1105.67
843,621.30,2698.19,1122.00
850,622.08,2718.47,1099.33
857,622.87,2738.68,1086.00
864,623.65,2758.83,1088.67
871,624.43,2778.92,1112.00
878,625.21,2798.95,1106.00
885,626.00,2818.92,1116.00
892,626.78,2838.83,1096.33
899,627.56,2858.68,1103.00
906,628.34,2878.47,1113.67
913,629.12,2898.20,1115.67
920,629.90,2917.87,1108.67
927,630.68,2937.48,1119.67
934,631.46,2957.03,1144.33
941,632.23,2976.52,1150.67
948,633.01,2995.95,1408.33
955,633.79,3015.32,3161.67
962,634.56,3034.63,1465.67
969,635.34,3053.88,1214.00
976,636.12,3073.08,1185.67
983,636.89,3092.21,1108.00
990,637.67,3111.29,1135.33
997,638.44,3130.30,1107.67
1004,639.21,3149.26,1088.00
1011,639.99,3168.16,1128.33
1018,640.76,3187.00,1125.00
1025,641.53,3205.79,1096.67
1032,642.30,3224.51,1091.67
1039,643.08,3243.18,1108.67
1046,643.85,3261.79,1106.00
1053,644.62,3280.35,1093.00
1060,645.39,3298.84,1087.33
1067,646.15,3317.28,1075.33
1074,646.92,3335.66,1153.00
1081,647.69,3353.98,1100.67
1088,648.46,3372.25,1109.33
1095,649.22,3390.45,1081.67
1102,649.99,3408.61,1071.67
1109,650.76,3426.70,1091.67
1116,651.52,3444.74,1075.33
1123,652.28,3462.72,1088.67
1130,653.05,3480.65,1103.67
1137,653.81,3498.52,1107.33
1144,654.57,3516.33,1091.00
1151,655.33,3534.09,1105.67
1158,656.10,3551.79,1089.33
1165,656.86,3569.43,1092.33
1172,657.62,3587.02,1100.33
1179,658.38,3604.55,1093.67
1186,659.13,3622.03,1103.67
1193,659.89,3639.46,1087.67
1200,660.65,3656.82,1173.00
1207,661.41,3674.14,1106.67
1214,662.16,3691.40,1077.33
1221,662.92,3708.60,1096.67
1228,663.67,3725.75,1100.67
1235,664.42,3742.84,1109.67
1242,665.18,3759.88,1084.00
1249,665.93,3776.86,1118.67
1256,666.68,3793.79,1088.00
1263,667.43,3810.67,1096.67
1270,668.18,3827.49,1083.67
1277,668.93,3844.26,1091.00
1284,669.68,3860.98,1090.00
1291,670.43,3877.64,1098.33
1298,671.18,3894.25,1089.33
1305,671.92,3910.80,1095.33
1312,672.67,3927.30,1075.33
1319,673.41,3943.75,1085.33
1326,674.16,3960.14,1087.00
1333,674.90,3976.49,1099.33
1340,675.64,3992.77,1077.33
1347,676.39,4009.01,1076.00
1354,677.13,4025.20,1103.33
1361,677.87,4041.33,1086.33
1368,678.61,4057.41,1097.67
1375,679.35,4073.43,1089.00
1382,680.08,4089.41,1101.33
1389,680.82,4105.33,1087.67
1396,681.56,4121.20,1097.67
1403,682.29,4137.02,1106.00
1410,683.03,4152.79,1098.67
1417,683.76,4168.50,1074.33
1424,684.50,4184.17,1104.00
1431,685.23,4199.78,1113.00
1438,685.96,4215.35,1095.67
1445,686.69,4230.86,1083.67
1452,687.42,4246.32,1105.67
1459,688.15,4261.73,1087.33
1466,688.88,4277.09,1087.67
1473,689.60,4292.39,1092.33
1480,690.33,4307.65,1094.67
1487,691.06,4322.86,1076.67
1494,691.78,4338.02,1093.67
1501,692.50,4353.13,1078.00
1508,693.23,4368.18,1089.67
1515,693.95,4383.19,1095.00
1522,694.67,4398.15,1069.67
1529,695.39,4413.06,1082.67
1536,696.11,4427.92,1078.33
1543,696.83,4442.73,1075.00
1550,697.55,4457.49,1126.00
1557,698.26,4472.20,1091.00
1564,698.98,4486.86,1067.67
1571,699.69,4501.48,1103.00
1578,700.41,4516.04,1071.67
1585,701.12,4530.56,1082.67
1592,701.83,4545.02,1109.33
1599,702.54,4559.44,1075.33
1606,703.25,4573.81,1091.00
1613,703.96,4588.14,1099.67
1620,704.67,4602.41,1091.33
1627,705.38,4616.64,1108.33
1634,706.08,4630.82,1126.00
1641,706.79,4644.95,1117.00
1648,707.49,4659.03,1115.00
1655,708.20,4673.07,1104.00
1662,708.90,4687.05,1141.67
1669,709.60,4701.00,1090.67
1676,710.30,4714.89,1091.67
1683,711.00,4728.74,1119.67
1690,711.70,4742.54,1122.00
1697,712.39,4756.29,1102.00
1704,713.09,4770.00,1091.67
1711,713.79,4783.66,1117.67
1718,714.48,4797.27,1098.00
1725,715.17,4810.84,1091.33
1732,715.87,4824.36,1110.00
1739,716.56,4837.83,1079.00
1746,717.25,4851.26,1122.33
1753,717.94,4864.64,1100.67
1760,718.62,4877.98,1087.33
1767,719.31,4891.27,1081.67
1774,720.00,4904.52,1115.67
1781,720.68,4917.72,1136.67
1788,721.37,4930.87,1077.00
1795,722.05,4943.98,1090.00
1802,722.73,4957.04,1099.00
1809,723.41,4970.06,1080.00
1816,724.09,4983.04,1087.33
1823,724.77,4995.97,1109.33
1830,725.45,5008.85,1081.00
1837,726.12,5021.69,1108.00
1844,726.80,5034.49,1086.67
1851,727.47,5047.24,1080.67
1858,728.15,5059.95,1090.67
1865,728.82,5072.61,1101.33
1872,729.49,5085.23,1080.33
1879,730.16,5097.80,1101.00
1886,730.83,5110.33,1115.67
1893,731.49,5122.82,1117.33
1900,732.16,5135.26,1093.67
1907,732.83,5147.66,1106.33
1914,733.49,5160.02,1103.67
1921,734.15,5172.33,1101.67
1928,734.82,5184.60,1159.00
1935,735.48,5196.83,1079.00
1942,736.14,5209.01,1103.67
1949,736.79,5221.15,1095.67
1956,737.45,5233.25,1116.00
1963,738.11,5245.31,1130.00
1970,738.76,5257.32,1101.67
1977,739.42,5269.29,1122.00
1984,740.07,5281.22,1105.67
1991,740.72,5293.10,1116.33
1998,741.37,5304.95,1122.67
2005,742.02,5316.75,1126.33
2012,742.67,5328.51,1103.00
2019,743.32,5340.23,1095.33
2026,743.96,5351.90,1108.33
2033,744.61,5363.54,1107.67
2040,745.25,5375.13,1064.33
2046,745.80,5385.03,1063.00